 Si Density=2.328 Thickness=1000. microns
 Photon Energy (eV), Transmission
    100.00      0.00000    
    149.80      0.00000    
    199.60      0.00000    
    249.40      0.00000    
    299.20      0.00000    
    349.00      0.00000    
    398.80      0.00000    
    448.60      0.00000    
    498.40      0.00000    
    548.20      0.00000    
    598.00      0.00000    
    647.80      0.00000    
    697.60      0.00000    
    747.40      0.00000    
    797.20      0.00000    
    847.00      0.00000    
    896.80      0.00000    
    946.60      0.00000    
    996.40      0.00000    
    1046.2      0.00000    
    1096.0      0.00000    
    1145.8      0.00000    
    1195.6      0.00000    
    1245.4      0.00000    
    1295.2      0.00000    
    1345.0      0.00000    
    1394.8      0.00000    
    1444.6      0.00000    
    1494.4      0.00000    
    1544.2      0.00000    
    1594.0      0.00000    
    1643.8      0.26807E-41
    1693.6      0.55961E-38
    1743.4      0.55128E-35
    1793.2      0.31082E-32
    1843.0      0.00000    
    1892.8      0.00000    
    1942.6      0.00000    
    1992.4      0.00000    
    2042.2      0.00000    
    2092.0      0.00000    
    2141.8      0.00000    
    2191.6      0.00000    
    2241.4      0.00000    
    2291.2      0.00000    
    2341.0      0.00000    
    2390.8      0.00000    
    2440.6      0.00000    
    2490.4      0.00000    
    2540.2      0.00000    
    2590.0      0.00000    
    2639.8      0.00000    
    2689.6      0.00000    
    2739.4      0.00000    
    2789.2      0.00000    
    2839.0      0.00000    
    2888.8      0.00000    
    2938.6      0.00000    
    2988.4      0.00000    
    3038.2      0.00000    
    3088.0      0.00000    
    3137.8      0.00000    
    3187.6      0.00000    
    3237.4      0.00000    
    3287.2      0.00000    
    3337.0      0.00000    
    3386.8      0.00000    
    3436.6      0.00000    
    3486.4      0.00000    
    3536.2      0.00000    
    3586.0      0.00000    
    3635.8      0.00000    
    3685.6      0.00000    
    3735.4      0.00000    
    3785.2      0.00000    
    3835.0      0.00000    
    3884.8      0.00000    
    3934.6      0.00000    
    3984.4      0.00000    
    4034.2      0.98091E-44
    4084.0      0.27746E-42
    4133.8      0.71971E-41
    4183.6      0.16209E-39
    4233.4      0.31883E-38
    4283.2      0.55221E-37
    4333.0      0.84994E-36
    4382.8      0.11654E-34
    4432.6      0.14333E-33
    4482.4      0.15929E-32
    4532.2      0.16053E-31
    4582.0      0.14738E-30
    4631.8      0.12386E-29
    4681.6      0.95868E-29
    4731.4      0.68473E-28
    4781.2      0.45299E-27
    4831.0      0.27878E-26
    4880.8      0.16004E-25
    4930.6      0.86097E-25
    4980.4      0.43486E-24
    5030.2      0.20677E-23
    5080.0      0.93113E-23
    5129.8      0.39674E-22
    5179.6      0.16040E-21
    5229.4      0.61666E-21
    5279.2      0.22593E-20
    5329.0      0.79202E-20
    5378.8      0.26566E-19
    5428.6      0.85465E-19
    5478.4      0.26426E-18
    5528.2      0.78654E-18
    5578.0      0.22577E-17
    5627.8      0.62544E-17
    5677.6      0.16759E-16
    5727.4      0.43464E-16
    5777.2      0.10930E-15
    5827.0      0.26675E-15
    5876.8      0.63265E-15
    5926.6      0.14602E-14
    5976.4      0.32833E-14
    6026.2      0.71980E-14
    6076.0      0.15401E-13
    6125.8      0.32185E-13
    6175.6      0.65749E-13
    6225.4      0.13144E-12
    6275.2      0.25730E-12
    6325.0      0.49355E-12
    6374.8      0.92952E-12
    6424.6      0.17197E-11
    6474.4      0.31210E-11
    6524.2      0.55653E-11
    6574.0      0.97613E-11
    6623.8      0.16847E-10
    6673.6      0.28640E-10
    6723.4      0.47968E-10
    6773.2      0.79184E-10
    6823.0      0.12890E-09
    6872.8      0.20700E-09
    6922.6      0.32811E-09
    6972.4      0.51354E-09
    7022.2      0.79431E-09
    7072.0      0.12141E-08
    7121.8      0.18349E-08
    7171.6      0.27428E-08
    7221.4      0.40565E-08
    7271.2      0.59383E-08
    7321.0      0.86067E-08
    7370.8      0.12358E-07
    7420.6      0.17579E-07
    7470.4      0.24781E-07
    7520.2      0.34628E-07
    7570.0      0.47980E-07
    7619.8      0.65939E-07
    7669.6      0.89898E-07
    7719.4      0.12165E-06
    7769.2      0.16339E-06
    7819.0      0.21786E-06
    7868.8      0.28847E-06
    7918.6      0.37935E-06
    7968.4      0.49567E-06
    8018.2      0.64349E-06
    8068.0      0.83021E-06
    8117.8      0.10648E-05
    8167.6      0.13575E-05
    8217.4      0.17210E-05
    8267.2      0.21698E-05
    8317.0      0.27209E-05
    8366.8      0.33949E-05
    8416.6      0.42140E-05
    8466.4      0.52053E-05
    8516.2      0.63993E-05
    8566.0      0.78304E-05
    8615.8      0.95389E-05
    8665.6      0.11570E-04
    8715.4      0.13973E-04
    8765.2      0.16806E-04
    8815.0      0.20133E-04
    8864.8      0.24022E-04
    8914.6      0.28553E-04
    8964.4      0.33813E-04
    9014.2      0.39896E-04
    9064.0      0.46915E-04
    9113.8      0.54978E-04
    9163.6      0.64210E-04
    9213.4      0.74751E-04
    9263.2      0.86744E-04
    9313.0      0.10035E-03
    9362.8      0.11574E-03
    9412.6      0.13310E-03
    9462.4      0.15263E-03
    9512.2      0.17456E-03
    9562.0      0.19908E-03
    9611.8      0.22645E-03
    9661.6      0.25694E-03
    9711.4      0.29078E-03
    9761.2      0.32826E-03
    9811.0      0.36972E-03
    9860.8      0.41543E-03
    9910.6      0.46571E-03
    9960.4      0.52094E-03
    10010.      0.58146E-03
    10060.      0.64763E-03
    10110.      0.71986E-03
    10160.      0.79857E-03
    10209.      0.88411E-03
    10259.      0.97693E-03
    10309.      0.10775E-02
    10359.      0.11862E-02
    10409.      0.13035E-02
    10458.      0.14300E-02
    10508.      0.15661E-02
    10558.      0.17122E-02
    10608.      0.18690E-02
    10658.      0.20368E-02
    10707.      0.22162E-02
    10757.      0.24077E-02
    10807.      0.26120E-02
    10857.      0.28295E-02
    10907.      0.30607E-02
    10956.      0.33062E-02
    11006.      0.35665E-02
    11056.      0.38421E-02
    11106.      0.41335E-02
    11156.      0.44417E-02
    11205.      0.47668E-02
    11255.      0.51095E-02
    11305.      0.54702E-02
    11355.      0.58496E-02
    11405.      0.62482E-02
    11454.      0.66663E-02
    11504.      0.71048E-02
    11554.      0.75639E-02
    11604.      0.80442E-02
    11654.      0.85461E-02
    11703.      0.90706E-02
    11753.      0.96176E-02
    11803.      0.10188E-01
    11853.      0.10781E-01
    11903.      0.11399E-01
    11952.      0.12042E-01
    12002.      0.12709E-01
    12052.      0.13401E-01
    12102.      0.14119E-01
    12152.      0.14863E-01
    12201.      0.15633E-01
    12251.      0.16430E-01
    12301.      0.17254E-01
    12351.      0.18105E-01
    12401.      0.18984E-01
    12450.      0.19891E-01
    12500.      0.20826E-01
    12550.      0.21790E-01
    12600.      0.22782E-01
    12650.      0.23803E-01
    12699.      0.24853E-01
    12749.      0.25932E-01
    12799.      0.27040E-01
    12849.      0.28177E-01
    12899.      0.29345E-01
    12948.      0.30542E-01
    12998.      0.31768E-01
    13048.      0.33024E-01
    13098.      0.34311E-01
    13148.      0.35626E-01
    13197.      0.36972E-01
    13247.      0.38347E-01
    13297.      0.39753E-01
    13347.      0.41189E-01
    13397.      0.42654E-01
    13446.      0.44149E-01
    13496.      0.45673E-01
    13546.      0.47227E-01
    13596.      0.48810E-01
    13646.      0.50422E-01
    13695.      0.52063E-01
    13745.      0.53734E-01
    13795.      0.55433E-01
    13845.      0.57160E-01
    13895.      0.58915E-01
    13944.      0.60700E-01
    13994.      0.62513E-01
    14044.      0.64353E-01
    14094.      0.66220E-01
    14144.      0.68114E-01
    14193.      0.70035E-01
    14243.      0.71982E-01
    14293.      0.73955E-01
    14343.      0.75953E-01
    14393.      0.77980E-01
    14442.      0.80032E-01
    14492.      0.82109E-01
    14542.      0.84210E-01
    14592.      0.86336E-01
    14642.      0.88486E-01
    14691.      0.90659E-01
    14741.      0.92856E-01
    14791.      0.95075E-01
    14841.      0.97317E-01
    14891.      0.99582E-01
    14940.      0.10187    
    14990.      0.10418    
    15040.      0.10651    
    15090.      0.10886    
    15140.      0.11123    
    15189.      0.11362    
    15239.      0.11603    
    15289.      0.11846    
    15339.      0.12091    
    15389.      0.12338    
    15438.      0.12587    
    15488.      0.12837    
    15538.      0.13089    
    15588.      0.13343    
    15638.      0.13598    
    15687.      0.13855    
    15737.      0.14114    
    15787.      0.14373    
    15837.      0.14635    
    15887.      0.14898    
    15936.      0.15162    
    15986.      0.15428    
    16036.      0.15695    
    16086.      0.15963    
    16136.      0.16233    
    16185.      0.16503    
    16235.      0.16775    
    16285.      0.17048    
    16335.      0.17322    
    16385.      0.17597    
    16434.      0.17873    
    16484.      0.18150    
    16534.      0.18428    
    16584.      0.18707    
    16634.      0.18987    
    16683.      0.19267    
    16733.      0.19548    
    16783.      0.19830    
    16833.      0.20112    
    16883.      0.20396    
    16932.      0.20680    
    16982.      0.20964    
    17032.      0.21249    
    17082.      0.21534    
    17132.      0.21820    
    17181.      0.22107    
    17231.      0.22394    
    17281.      0.22681    
    17331.      0.22969    
    17381.      0.23256    
    17430.      0.23545    
    17480.      0.23833    
    17530.      0.24122    
    17580.      0.24411    
    17630.      0.24700    
    17679.      0.24989    
    17729.      0.25278    
    17779.      0.25568    
    17829.      0.25857    
    17879.      0.26147    
    17928.      0.26436    
    17978.      0.26725    
    18028.      0.27015    
    18078.      0.27304    
    18128.      0.27593    
    18177.      0.27882    
    18227.      0.28171    
    18277.      0.28459    
    18327.      0.28748    
    18377.      0.29036    
    18426.      0.29324    
    18476.      0.29612    
    18526.      0.29899    
    18576.      0.30186    
    18626.      0.30473    
    18675.      0.30760    
    18725.      0.31046    
    18775.      0.31332    
    18825.      0.31617    
    18875.      0.31902    
    18924.      0.32186    
    18974.      0.32470    
    19024.      0.32753    
    19074.      0.33036    
    19124.      0.33319    
    19173.      0.33600    
    19223.      0.33882    
    19273.      0.34162    
    19323.      0.34442    
    19373.      0.34722    
    19422.      0.35000    
    19472.      0.35279    
    19522.      0.35556    
    19572.      0.35833    
    19622.      0.36110    
    19671.      0.36385    
    19721.      0.36660    
    19771.      0.36934    
    19821.      0.37208    
    19871.      0.37481    
    19920.      0.37753    
    19970.      0.38024    
    20020.      0.38295    
    20070.      0.38565    
    20120.      0.38834    
    20169.      0.39102    
    20219.      0.39370    
    20269.      0.39636    
    20319.      0.39902    
    20369.      0.40167    
    20418.      0.40431    
    20468.      0.40694    
    20518.      0.40957    
    20568.      0.41218    
    20618.      0.41479    
    20667.      0.41738    
    20717.      0.41997    
    20767.      0.42254    
    20817.      0.42511    
    20867.      0.42767    
    20916.      0.43022    
    20966.      0.43276    
    21016.      0.43529    
    21066.      0.43781    
    21116.      0.44033    
    21165.      0.44283    
    21215.      0.44532    
    21265.      0.44780    
    21315.      0.45028    
    21365.      0.45274    
    21414.      0.45519    
    21464.      0.45764    
    21514.      0.46007    
    21564.      0.46249    
    21614.      0.46491    
    21663.      0.46731    
    21713.      0.46970    
    21763.      0.47209    
    21813.      0.47446    
    21863.      0.47682    
    21912.      0.47918    
    21962.      0.48152    
    22012.      0.48385    
    22062.      0.48617    
    22112.      0.48849    
    22161.      0.49079    
    22211.      0.49308    
    22261.      0.49537    
    22311.      0.49764    
    22361.      0.49990    
    22410.      0.50215    
    22460.      0.50439    
    22510.      0.50663    
    22560.      0.50885    
    22610.      0.51106    
    22659.      0.51326    
    22709.      0.51545    
    22759.      0.51763    
    22809.      0.51980    
    22859.      0.52196    
    22908.      0.52411    
    22958.      0.52625    
    23008.      0.52838    
    23058.      0.53050    
    23108.      0.53261    
    23157.      0.53471    
    23207.      0.53680    
    23257.      0.53888    
    23307.      0.54095    
    23357.      0.54301    
    23406.      0.54506    
    23456.      0.54710    
    23506.      0.54913    
    23556.      0.55115    
    23606.      0.55316    
    23655.      0.55516    
    23705.      0.55715    
    23755.      0.55913    
    23805.      0.56110    
    23855.      0.56306    
    23904.      0.56501    
    23954.      0.56695    
    24004.      0.56888    
    24054.      0.57080    
    24104.      0.57271    
    24153.      0.57462    
    24203.      0.57651    
    24253.      0.57839    
    24303.      0.58026    
    24353.      0.58213    
    24402.      0.58398    
    24452.      0.58583    
    24502.      0.58766    
    24552.      0.58949    
    24602.      0.59131    
    24651.      0.59311    
    24701.      0.59491    
    24751.      0.59670    
    24801.      0.59848    
    24851.      0.60025    
    24900.      0.60201    
    24950.      0.60376    
    25000.      0.60551    
